File: Cell-11.csv
Data Point,Date Time,Test Time (s),Step Time (s),Cycle Index,Step Index,Current (A),Voltage (V),Power (W),Charge Capacity (Ah),Discharge Capacity (Ah),Charge Energy (Wh),Discharge Energy (Wh),ACR (Ohm),dV/dt (V/s),Internal Resistance (Ohm),dQ/dV (Ah/V),dV/dQ (V/Ah)
1,	09/22/2022 15:27:13.743,60.0009,60.0009,1,1,0,0.08341932,0,0,0,0,0,,4.96092e-06,,,
333,	09/22/2022 19:57:13.827,16260.1,9060,1,3,0,1.119951,0,0.0001998759,0,0.0002843407,0,,-2.38673e-05,,0,
665,	09/23/2022 01:29:13.827,36180.1,28980,1,3,0,0.8605194,0,0.0001998759,0,0.0002843407,0,,-3.77342e-06,,0,
997,	09/23/2022 06:13:15.152,53221.4,2820,1,5,0.0400365,3.520204,0.140937,0.03155601,0.00000000000005236101,0.1034806,0.00000000000003971673,,4.23998e-05,,0,
1329,	09/23/2022 08:58:22.325,63128.6,5610,1,8,0.03998321,3.709819,0.14833,0.1216211,0.00000000000005236101,0.4302366,0.00000000000003971673,,2.65904e-05,,0.589231,
1661,	09/23/2022 11:44:22.325,73088.6,15570.001,1,8,0.03998137,4.084061,0.163286,0.2322224,0.00000000000005236101,0.8585789,0.00000000000003971673,,6.25093e-05,,0,
1993,	09/23/2022 14:28:22.861,82929.1,2670,1,8,0.04000092,4.121393,0.16486,0.02966218,0.00000002557007,1.07603,0.1445726,,5.64239e-05,,,
2325,	09/23/2022 17:12:33.196,92779.5,3240,1,8,0.03998369,4.159656,0.166318,0.03597952,0.00000002222504,1.277414,0.3055078,,6.97838e-05,,0.169859,5.86877
2657,	09/23/2022 19:56:40.905,102627,3720.001,1,8,0.03998488,4.190386,0.167552,0.04131046,0.00000005557466,1.473018,0.4721452,,5.0658e-05,,0.162359,6.14782
2989,	09/23/2022 22:39:55.095,112421,180.0015,1,10,-0.04000753,4.124573,-0.165014,0.04307701,0.002000019,1.655007,0.6497819,,-0.0001181,,,
3321,	09/24/2022 01:24:09.060,122275,510.0011,1,11,0,4.165524,0,0.0432113,0.00000002222597,1.831284,0.8124213,,-2.52107e-05,,0,
3653,	09/24/2022 04:10:09.060,132235,10470,1,11,0,4.15301,0,0.0432113,0.00000002222597,1.831284,0.8124213,,1.30384e-05,,,
3985,	09/24/2022 06:55:39.101,142165,9600,1,12,-0.04000598,3.653924,-0.146179,0.0432113,0.1066652,1.831284,1.224121,,-4.16434e-05,,,
4317,	09/24/2022 09:41:39.101,152125,19560,1,12,-0.04000747,3.26605,-0.130666,0.0432113,0.2173296,1.831284,1.614908,,-0.000251191,,0.039644,24.7012
4649,	09/24/2022 13:21:11.493,165298,9060.001,1,17,0.01154502,4.2,0.0484891,0.2281881,0.0000000001186199,2.705126,1.632797,,1.49357e-05,,,
4981,	09/24/2022 16:04:14.829,175081,450.0011,2,17,0.1000005,3.56235,0.356237,0.01249787,0.00000000009698046,0.0440668,0.0000000003250716,,0.00011392,,0.269195,
5313,	09/24/2022 18:49:34.649,185001,810.0001,2,19,-0.1000063,3.98453,-0.398478,0.2232801,0.02249626,0.8562834,0.09107836,,-0.000156869,,,
5645,	09/24/2022 21:33:40.770,194847,2040,3,17,0.100001,3.687722,0.368776,0.05665495,0.00000000005520133,0.2043611,0.0000000001847793,,6.53938e-05,,,0
5977,	09/25/2022 00:18:58.795,204765,2430,3,19,-0.1000207,3.765994,-0.376677,0.223098,0.067501,0.8552081,0.2653569,,-0.00010391,,,
6309,	09/25/2022 03:03:01.542,214608,3660,4,17,0.1000016,3.761974,0.376203,0.1016491,0.0000000001537187,0.3718007,0.0000000005138676,,6.97797e-05,,0.480091,
6641,	09/25/2022 05:48:09.559,224515.817,4050,4,19,-0.1000066,3.610713,-0.361095,0.2230517,0.1124863,0.8549037,0.4309507,,-6.66977e-05,,0,2.44571
6973,	09/25/2022 08:32:14.183,234360,5280,5,23,0.09999681,3.900392,0.390027,0.1466364,0.00000000009513478,0.5437875,0.0000000003176143,,0.000113426,,,
7305,	09/25/2022 10:14:20.835,240487.093,1900,5,25,-0.009999838,4.144629,-0.0414456,0.2230298,0.005276658,0.8546603,0.02196143,,-7.90303e-06,,0,
7637,	09/25/2022 11:09:40.835,243807.093,5220,5,25,-0.00999981,4.091166,-0.0409109,0.2230298,0.01449718,0.8546603,0.05992599,,-4.00657e-05,,,
7969,	09/25/2022 12:05:00.836,247127,8540,5,25,-0.009999838,4.041756,-0.0404169,0.2230298,0.02371765,0.8546603,0.09741943,,3.71393e-06,,,
8301,	09/25/2022 13:00:20.834,250447,11860,5,25,-0.00999986,3.994674,-0.0399462,0.2230298,0.03293774,0.8546603,0.1344669,,8.77236e-06,,,
8633,	09/25/2022 13:55:40.834,253767,15180,5,25,-0.009999899,3.949604,-0.0394956,0.2230298,0.04215818,0.8546603,0.1710902,,,,0,
8965,	09/25/2022 14:51:00.834,257087,18500,5,25,-0.009999909,3.906023,-0.0390599,0.2230298,0.05137879,0.8546603,0.2073057,,,,,
9297,	09/25/2022 15:46:20.834,260407,21820,5,25,-0.009999895,3.864706,-0.0386467,0.2230298,0.06059937,0.8546603,0.2431303,,-8.06022e-06,,0,0
9629,	09/25/2022 16:41:40.836,263727,25140,5,25,-0.009999963,3.82556,-0.0382555,0.2230298,0.06981951,0.8546603,0.278582,,-1.85707e-06,,,
9961,	09/25/2022 17:37:00.835,267047,28460.001,5,25,-0.009999806,3.788397,-0.0378832,0.2230298,0.07903965,0.8546603,0.3136824,,4.07769e-05,,,
10293,	09/25/2022 18:32:20.835,270367,31780,5,25,-0.009999814,3.752135,-0.0375207,0.2230298,0.08826023,0.8546603,0.3484466,,-2.4101e-06,,,
10625,	09/25/2022 19:27:40.834,273687,35100,5,25,-0.009999821,3.717055,-0.0371699,0.2230298,0.09748084,0.8546603,0.3828775,,-2.64752e-05,,,
10957,	09/25/2022 20:23:00.836,277007,38420.002,5,25,-0.009999864,3.689082,-0.0368903,0.2230298,0.1067011,0.8546603,0.4170147,,-1.18933e-05,,,
11289,	09/25/2022 21:18:20.836,280327,41740,5,25,-0.009999981,3.667459,-0.0366745,0.2230298,0.1159212,0.8546603,0.4509256,,-7.34933e-06,,0,
11621,	09/25/2022 22:13:40.835,283647,45060,5,25,-0.009999739,3.649547,-0.0364945,0.2230298,0.1251416,0.8546603,0.4846569,,-7.50738e-07,,,
11953,	09/25/2022 23:09:00.836,286967,48380,5,25,-0.009999787,3.633945,-0.0363387,0.2230298,0.1343623,0.8546603,0.5182348,,,,,
12285,	09/26/2022 00:04:20.835,290287.093,51700,5,25,-0.009999791,3.619093,-0.0361902,0.2230298,0.1435828,0.8546603,0.5516734,,-2.1969e-05,,0,
12617,	09/26/2022 00:59:40.834,293607,55020,5,25,-0.01000009,3.604327,-0.0360436,0.2230298,0.1528033,0.8546603,0.5849762,,-9.68049e-06,,,
12949,	09/26/2022 01:55:00.834,296927,58340,5,25,-0.009999821,3.5865,-0.0358644,0.2230298,0.1620239,0.8546603,0.6181315,,-2.63153e-05,,0,
13281,	09/26/2022 02:50:20.834,300247,61660,5,25,-0.00999983,3.564326,-0.0356427,0.2230298,0.1712445,0.8546603,0.6511012,,-1.38294e-06,,,
13613,	09/26/2022 03:45:40.835,303567,64980,5,25,-0.009999774,3.539843,-0.0353976,0.2230298,0.1804651,0.8546603,0.6838552,,2.48929e-06,,,
13945,	09/26/2022 04:41:00.835,306887,68300,5,25,-0.009999899,3.514298,-0.0351426,0.2230298,0.1896857,0.8546603,0.7163796,,-3.87226e-06,,,
14277,	09/26/2022 05:36:20.835,310207.093,71620,5,25,-0.009999849,3.484993,-0.0348494,0.2230298,0.1989063,0.8546603,0.7486503,,-2.64734e-05,,,
14609,	09/26/2022 06:31:40.835,313527.093,74940,5,25,-0.009999756,3.448412,-0.0344833,0.2230298,0.2081268,0.8546603,0.7806237,,-3.8722e-06,,,
14941,	09/26/2022 07:27:00.835,316847.093,78260,5,25,-0.009999767,3.402374,-0.0340229,0.2230298,0.2173474,0.8546603,0.8122293,,,,,
15273,	09/26/2022 08:22:20.835,320167.093,81580,5,25,-0.009999767,3.240986,-0.0324091,0.2230298,0.2265679,0.8546603,0.8430141,,-7.02533e-05,,,
15605,	09/26/2022 09:24:10.913,323877,1100,5,27,0.009999745,3.228141,0.0322806,0.2260848,0.2321502,0.8643179,0.8605286,,,,0.0278331,
15937,	09/26/2022 10:19:30.913,327197,4420,5,27,0.009999614,3.43594,0.0343581,0.2353052,0.2321502,0.8951791,0.8605286,,,,0,0
16269,	09/26/2022 11:14:50.913,330517,7740,5,27,0.009999573,3.48675,0.034866,0.2445257,0.2321502,0.9271564,0.8605286,,,,0,
16601,	09/26/2022 12:10:10.913,333837,11060,5,27,0.009999514,3.518658,0.0351849,0.253746,0.2321502,0.9594536,0.8605286,,1.63185e-05,,,
16933,	09/26/2022 13:05:30.913,337157,14380,5,27,0.009999644,3.550066,0.0354994,0.2629664,0.2321502,0.9920407,0.8605286,,8.61316e-06,,,
17265,	09/26/2022 14:00:50.913,340477,17700,5,27,0.009999465,3.579993,0.035798,0.2721867,0.2321502,1.024915,0.8605286,,1.67544e-05,,,
17597,	09/26/2022 14:56:10.913,343797,21020,5,27,0.00999957,3.605762,0.0360561,0.2814071,0.2321502,1.05805,0.8605286,,-1.07876e-05,,,
17929,	09/26/2022 15:51:30.913,347117,24340,5,27,0.009999409,3.624959,0.0362474,0.2906274,0.2321502,1.09139,0.8605286,,9.79911e-06,,,
18261,	09/26/2022 16:46:50.913,350437,27660.001,5,27,0.009999689,3.63954,0.0363943,0.2998477,0.2321502,1.124882,0.8605286,,9.83862e-06,,,
18593,	09/26/2022 17:42:10.913,353757,30980.001,5,27,0.009999491,3.652613,0.0365243,0.309068,0.2321502,1.1585,0.8605286,,2.22062e-05,,,
18925,	09/26/2022 18:37:30.913,357077,34300.001,5,27,0.009999357,3.666266,0.0366603,0.3182883,0.2321502,1.192241,0.8605286,,,,,
19257,	09/26/2022 19:32:50.913,360397,37620,5,27,0.00999942,3.680833,0.0368062,0.3275085,0.2321502,1.22611,0.8605286,,,,,
19589,	09/26/2022 20:28:10.913,363717,40940,5,27,0.009999465,3.697627,0.0369743,0.3367288,0.2321502,1.260125,0.8605286,,1.61991e-05,,,
19921,	09/26/2022 21:23:30.913,367037,44260,5,27,0.009999353,3.718145,0.037179,0.3459491,0.2321502,1.294309,0.8605286,,1.82546e-05,,,
20253,	09/26/2022 22:18:50.913,370357,47580,5,27,0.00999938,3.743896,0.0374366,0.3551693,0.2321502,1.328704,0.8605286,,1.76224e-05,,,
20585,	09/26/2022 23:14:10.913,373677,50900,5,27,0.009999529,3.776651,0.0377647,0.3643895,0.2321502,1.36337,0.8605286,,2.608e-05,,,
20917,	09/27/2022 00:09:30.912,376997,54220,5,27,0.009999458,3.811118,0.0381091,0.3736097,0.2321502,1.398351,0.8605286,,1.55284e-05,,,0
21249,	09/27/2022 01:04:50.912,380317,57540,5,27,0.009999461,3.84652,0.0384631,0.3828299,0.2321502,1.433652,0.8605286,,2.87256e-05,,,
21581,	09/27/2022 02:00:10.913,383637,60860,5,27,0.009999439,3.884313,0.038841,0.3920501,0.2321502,1.469291,0.8605286,,,,,
21913,	09/27/2022 02:55:30.912,386957,64180,5,27,0.009999398,3.924196,0.0392396,0.4012702,0.2321502,1.505288,0.8605286,,1.18537e-07,,,
22245,	09/27/2022 03:50:50.913,390277,67500,5,27,0.009999398,3.965707,0.0396547,0.4104904,0.2321502,1.54166,0.8605286,,8.69276e-07,,,
22577,	09/27/2022 04:46:10.913,393597,70820,5,27,0.009999365,4.008401,0.0400815,0.4197106,0.2321502,1.578421,0.8605286,,-1.01151e-05,,,
22909,	09/27/2022 05:41:30.912,396917,74140,5,27,0.009999335,4.052583,0.0405231,0.4289308,0.2321502,1.615583,0.8605286,,2.10997e-05,,,
23241,	09/27/2022 06:36:50.912,400237,77460,5,27,0.009999435,4.098214,0.0409798,0.4381509,0.2321502,1.653159,0.8605286,,1.41447e-05,,,
23573,	09/27/2022 07:32:10.912,403557,80780,5,27,0.009999432,4.145599,0.0414536,0.4473711,0.2321502,1.691162,0.8605286,,,,0,
23905,	09/27/2022 08:27:30.913,406877,84100,5,27,0.009999476,4.194541,0.0419432,0.4565912,0.2321502,1.729609,0.8605286,,,,,
24215,	09/27/2022 10:48:29.139,415335,3600,6,31,0,3.428311,0,0,0.2170226,0,0.7786902,,-1.32763e-05,0.616228,0,0