File: Cell 2.CSV
Data Point,Date Time,Test Time (s),Step Time (s),Cycle Index,Step Index,Current (A),Voltage (V),Power (W),Charge Capacity (Ah),Discharge Capacity (Ah),Charge Energy (Wh),Discharge Energy (Wh),ACR (Ohm),dV/dt (V/s),Internal Resistance (Ohm),dQ/dV (Ah/V),dV/dQ (V/Ah)
1,	09/22/2022 15:27:13.774,60.0001,60.0001,1,1,0,0.131228,0,0,0,0,0,,-4.81065e-06,,,
297,	09/22/2022 19:21:13.855,14100.1,6900,1,3,0,1.22396,0,0.0002680493,0,0.000380497,0,,-2.33519e-05,,0,
593,	09/23/2022 00:17:13.856,31860.1,24660,1,3,0,1.052173,0,0.0002680493,0,0.000380497,0,,-1.54099e-06,,0,
889,	09/23/2022 05:13:13.855,49620.1,42420,1,3,0,0.9529014,0,0.0002680493,0,0.000380497,0,,-4.85044e-06,,0,
1185,	09/23/2022 07:46:32.473,58818.7,3300,1,8,0.04000437,3.296086,0.131858,0.07381946,0,0.2309162,0,,4.36613e-05,,,
1481,	09/23/2022 10:14:32.473,67698.7,12180,1,8,0.0400039,3.393547,0.135755,0.1724767,0,0.561767,0,,3.23213e-05,,0,
1777,	09/23/2022 12:41:54.320,76540.5,3660,1,10,-0.03998768,3.269573,-0.130743,0.2300464,0.04065023,0.7606235,0.1338582,,-6.75703e-06,,,
2073,	09/23/2022 15:09:13.114,85379.3,1680,1,7,0,3.252396,0,0,0.00000005552123,0.7606235,0.3916223,,-8.37673e-06,,,
2369,	09/23/2022 17:36:43.153,94229.4,8730,1,8,0.03996813,3.387991,0.135412,0.09690858,0.00000005552123,1.085526,0.3916223,,-7.86293e-06,,,0
2665,	09/23/2022 20:04:12.396,103079,6420,1,10,-0.04000336,3.249648,-0.129997,0.1238732,0.07133351,1.178089,0.6253352,,-2.09418e-06,,2.71377,0
2961,	09/23/2022 22:30:50.336,111877,2820,1,8,0.03998828,3.344109,0.133725,0.03131721,0.0000000544593,1.282368,0.7753067,,1.4027e-05,,,
3257,	09/24/2022 00:58:00.965,120707,780.0001,1,10,-0.04000789,3.29386,-0.13178,0.1207214,0.00866673,1.584745,0.8040332,,1.53695e-05,,,
3553,	09/24/2022 03:26:00.966,129587,9660.001,1,10,-0.04000634,3.215445,-0.128638,0.1207214,0.107333,1.584745,1.125429,,-1.00363e-05,,,
3849,	09/24/2022 05:52:34.376,138381,6180,1,8,0.03998375,3.373211,0.134874,0.06863133,0.00000005889062,1.814204,1.154423,,4.37433e-05,,,
4145,	09/24/2022 08:19:58.267,147224,4380.001,1,10,-0.0400086,3.257701,-0.130336,0.1182034,0.04866572,1.982929,1.314285,,1.04708e-05,,0,
4441,	09/24/2022 10:47:02.784,156049,1050,1,8,0.03998643,3.332396,0.133251,0.01166101,0.00000002333654,2.021591,1.529189,,7.90198e-08,,,0
4737,	09/24/2022 13:15:02.785,164929,9930,1,8,0.03998059,3.429163,0.1371,0.1102752,0.00000002333654,2.353646,1.529189,,0.000107608,,0.143344,
5033,	09/24/2022 15:42:15.435,173761.661,8280,1,10,-0.04001939,3.231765,-0.129333,0.1164112,0.09202901,2.375076,1.829819,,-2.50116e-05,,,
5329,	09/24/2022 18:09:09.225,182575,5040,1,8,0.03998274,3.357136,0.134227,0.05596953,0.00000006447131,2.56199,1.900399,,2.05056e-05,,0,
5625,	09/24/2022 20:36:19.649,191406,3510,1,11,0,3.350736,0,0.1150531,0.00000006447131,2.762647,1.900399,,-5.61115e-06,,,
5921,	09/24/2022 23:03:49.691,200256,1560.001,1,12,-0.04000664,3.28473,-0.131411,0.1150531,0.01733282,2.762647,1.957421,,-2.39049e-05,,,
6217,	09/25/2022 01:31:49.691,209136,10440.001,1,12,-0.04000431,3.189112,-0.127578,0.1150531,0.1159994,2.762647,2.277466,,6.28291e-06,,0.508955,0
6513,	09/25/2022 04:53:02.081,221208,4140,1,17,0.1000122,3.430311,0.343073,0.1149979,0.0000000000105732,3.149346,2.424304,,4.1807e-05,,,
6809,	09/25/2022 07:20:58.612,230085,4020,1,19,-0.1000138,3.172575,-0.317301,0.1764857,0.1116679,3.367345,2.783803,,-4.77339e-05,,,
7105,	09/25/2022 09:47:12.710,238859,5910,2,17,0.1000152,3.529765,0.35303,0.1641611,0,0.5544923,0,,0.000263627,,0.107786,8.81183
7401,	09/25/2022 12:13:04.217,247610,330.001,3,17,0.1000175,3.254276,0.325485,0.009166265,0.000000000003771648,0.02882059,0.00000000001091782,,0.000386701,,0.0611703,17.2331
7697,	09/25/2022 14:40:28.827,256455.053,1890,3,19,-0.1000119,3.221194,-0.322158,0.1757416,0.05249913,0.5956168,0.1702883,,-3.29537e-05,,0,
7993,	09/25/2022 17:06:33.921,265220,3750,4,17,0.1000192,3.404929,0.340558,0.104167,0.000000000001519918,0.3479201,0.000000000004388809,,3.01876e-05,,,0
8289,	09/25/2022 19:33:43.199,274049,5370,4,19,-0.1000298,3.097393,-0.309832,0.1757764,0.1491904,0.5955662,0.4775898,,-0.000125494,,0.240821,
8585,	09/25/2022 21:58:52.787,282759,10.0008,5,25,-0.01000183,3.442844,-0.0344347,0.1756833,0.00002777052,0.5951962,0.00009571222,,-0.000786255,,0.00265431,737.717
8881,	09/25/2022 22:48:12.787,285719,2970,5,25,-0.01000034,3.315018,-0.0331513,0.1756833,0.008249114,0.5951962,0.0274864,,1.03524e-05,,,
9177,	09/25/2022 23:37:32.787,288679.013,5930,5,25,-0.01000042,3.313034,-0.0331317,0.1756833,0.01647042,0.5951962,0.05473338,,-1.06295e-05,,,
9473,	09/26/2022 00:26:52.786,291639,8890,5,25,-0.0100005,3.310781,-0.0331095,0.1756833,0.02469162,0.5951962,0.08196151,,-1.6715e-05,,0,
9769,	09/26/2022 01:16:12.787,294599,11850,5,25,-0.01000045,3.306786,-0.0330693,0.1756833,0.03291289,0.5951962,0.109166,,-1.24464e-05,,,
10065,	09/26/2022 02:05:32.786,297559,14810,5,25,-0.01000055,3.293516,-0.032937,0.1756833,0.04113419,0.5951962,0.1363079,,,,0,
10361,	09/26/2022 02:54:52.787,300519,17770.001,5,25,-0.01000079,3.280422,-0.0328068,0.1756833,0.04935554,0.5951962,0.1633176,,-1.23287e-05,,,
10657,	09/26/2022 03:44:12.787,303479,20730,5,25,-0.01000049,3.277541,-0.032777,0.1756833,0.05757689,0.5951962,0.1902737,,-1.1142e-05,,,
10953,	09/26/2022 04:33:32.787,306439,23690.001,5,25,-0.01000047,3.275972,-0.0327613,0.1756833,0.06579825,0.5951962,0.2172132,,-1.9913e-05,,,
11249,	09/26/2022 05:22:52.787,309399,26650,5,25,-0.0100005,3.274806,-0.0327497,0.1756833,0.0740196,0.5951962,0.2441413,,,,,
11545,	09/26/2022 06:12:12.786,312359,29610,5,25,-0.01000061,3.27338,-0.0327358,0.1756833,0.08224093,0.5951962,0.2710583,,2.48139e-05,,,
11841,	09/26/2022 07:01:32.787,315319,32570,5,25,-0.01000056,3.271196,-0.0327138,0.1756833,0.09046228,0.5951962,0.297961,,3.47707e-06,,,
12137,	09/26/2022 07:50:52.787,318279.013,35530,5,25,-0.01000036,3.266078,-0.032662,0.1756833,0.09868357,0.5951962,0.3248363,,,,0,
12433,	09/26/2022 08:40:12.787,321239,38490,5,25,-0.01000041,3.257835,-0.0325797,0.1756833,0.1069049,0.5951962,0.351656,,-8.85022e-06,,,
12729,	09/26/2022 09:29:32.786,324199,41450,5,25,-0.01000041,3.246192,-0.0324633,0.1756833,0.1151262,0.5951962,0.3783932,,-3.16119e-07,,,
13025,	09/26/2022 10:18:52.786,327159,44410,5,25,-0.01000038,3.235017,-0.0323514,0.1756833,0.1233476,0.5951962,0.4050329,,6.48e-06,,,
13321,	09/26/2022 11:08:12.787,330119,47370,5,25,-0.01000046,3.221191,-0.0322134,0.1756833,0.131569,0.5951962,0.4315785,,,,,0
13617,	09/26/2022 11:57:32.786,333079,50330,5,25,-0.01000059,3.203354,-0.0320354,0.1756833,0.1397903,0.5951962,0.4579865,,8.41561e-06,,,
13913,	09/26/2022 12:46:52.786,336039,53290,5,25,-0.0100006,3.184719,-0.0318491,0.1756833,0.1480117,0.5951962,0.4842319,,3.43782e-06,,,
14209,	09/26/2022 13:36:12.786,338999,56250,5,25,-0.01000057,3.177324,-0.0317751,0.1756833,0.1562331,0.5951962,0.5103894,,6.40145e-06,,,
14505,	09/26/2022 14:25:32.787,341959,59210,5,25,-0.0100005,3.117421,-0.0311758,0.1756833,0.1644544,0.5951962,0.5363495,,-2.84888e-05,,,
14801,	09/26/2022 15:14:52.786,344919,62170,5,25,-0.01000049,2.956914,-0.0295706,0.1756833,0.1726758,0.5951962,0.5613918,,-9.07342e-05,,,0
15097,	09/26/2022 16:09:10.692,348177,450.0008,5,26,0,2.618583,0,0.1756833,0.1804746,0.5951962,0.5831687,,0.000123947,,0,
15393,	09/26/2022 17:00:00.733,351227,2900,5,27,0.01000043,3.096426,0.0309656,0.1837379,0.1804746,0.618934,0.5831687,,,,,
15689,	09/26/2022 17:49:20.734,354187,5860,5,27,0.0100004,3.228353,0.0322848,0.1919593,0.1804746,0.6450099,0.5831687,,3.59169e-05,,,
15985,	09/26/2022 18:38:40.734,357147,8820,5,27,0.01000043,3.24168,0.0324182,0.2001806,0.1804746,0.6716236,0.5831687,,-4.74186e-07,,,
16281,	09/26/2022 19:28:00.734,360107,11780,5,27,0.01000036,3.256064,0.0325618,0.208402,0.1804746,0.6983249,0.5831687,,1.24463e-05,,,
16577,	09/26/2022 20:17:20.733,363067,14740,5,27,0.01000069,3.278082,0.0327831,0.2166233,0.1804746,0.7251843,0.5831687,,-1.22497e-05,,,
16873,	09/26/2022 21:06:40.734,366027,17700,5,27,0.01000037,3.294909,0.0329503,0.2248446,0.1804746,0.7522095,0.5831687,,-1.29997e-05,,,
17169,	09/26/2022 21:56:00.734,368987,20660,5,27,0.01000045,3.310004,0.0331015,0.2330658,0.1804746,0.7793606,0.5831687,,-3.04244e-06,,,
17465,	09/26/2022 22:45:20.733,371947,23620,5,27,0.01000028,3.318366,0.0331846,0.241287,0.1804746,0.8066099,0.5831687,,,,,0
17761,	09/26/2022 23:34:40.734,374907,26580.001,5,27,0.01000044,3.32257,0.0332272,0.2495082,0.1804746,0.8339123,0.5831687,,2.42198e-05,,0,
18057,	09/27/2022 00:24:00.733,377867,29540,5,27,0.0100004,3.324336,0.0332447,0.2577295,0.1804746,0.8612354,0.5831687,,-5.966e-06,,,
18353,	09/27/2022 01:13:20.733,380827,32500,5,27,0.01000049,3.325724,0.0332589,0.2659507,0.1804746,0.8885709,0.5831687,,-1.71889e-05,,,
18649,	09/27/2022 02:02:40.733,383787,35460,5,27,0.01000033,3.32738,0.0332749,0.274172,0.1804746,0.9159197,0.5831687,,,,,
18945,	09/27/2022 02:52:00.733,386747,38420,5,27,0.01000044,3.329457,0.033296,0.2823932,0.1804746,0.9432836,0.5831687,,-1.0787e-05,,,
19241,	09/27/2022 03:41:20.733,389707,41380,5,27,0.01000044,3.332427,0.0333257,0.2906144,0.1804746,0.9706672,0.5831687,,-7.15218e-06,,0,
19537,	09/27/2022 04:30:40.733,392667,44340,5,27,0.01000038,3.336592,0.0333672,0.2988356,0.1804746,0.9980788,0.5831687,,-1.2052e-05,,,
19833,	09/27/2022 05:20:00.733,395627,47300,5,27,0.01000046,3.344129,0.0334428,0.3070569,0.1804746,1.025537,0.5831687,,2.17333e-05,,,
20129,	09/27/2022 06:09:20.734,398587,50260,5,27,0.01000037,3.358869,0.0335899,0.3152781,0.1804746,1.053087,0.5831687,,2.3472e-05,,,
20425,	09/27/2022 06:58:40.734,401547,53220,5,27,0.01000033,3.364072,0.0336418,0.3234993,0.1804746,1.080733,0.5831687,,-5.96639e-06,,0,
20721,	09/27/2022 07:48:00.733,404507,56180,5,27,0.01000045,3.365848,0.03366,0.3317205,0.1804746,1.108396,0.5831687,,,,,0
21017,	09/27/2022 08:37:20.734,407467,59140.001,5,27,0.01000036,3.368046,0.0336817,0.3399417,0.1804746,1.136076,0.5831687,,-5.21526e-06,,,
21313,	09/27/2022 09:26:40.734,410427,62100,5,27,0.01000037,3.372333,0.0337246,0.3481629,0.1804746,1.16378,0.5831687,,1.10635e-05,,,
21609,	09/27/2022 10:16:00.733,413387,65060,5,27,0.01000042,3.415896,0.0341604,0.3563842,0.1804746,1.191588,0.5831687,,,,,
21905,	09/27/2022 12:16:50.572,420637,2910,6,31,0,3.128088,0,0,0.1652677,0,0.5092722,,-2.37075e-06,,,
21928,	09/27/2022 12:28:20.571,421327,3600,6,31,0,3.136792,0,0,0.1652677,0,0.5092722,,3.44157e-05,0.399046,0,0