File: Cell 4.CSV
Data Point,Date Time,Test Time (s),Step Time (s),Cycle Index,Step Index,Current (A),Voltage (V),Power (W),Charge Capacity (Ah),Discharge Capacity (Ah),Charge Energy (Wh),Discharge Energy (Wh),ACR (Ohm),dV/dt (V/s),Internal Resistance (Ohm),dQ/dV (Ah/V),dV/dQ (V/Ah)
1,	09/22/2022 15:27:13.803,60.0002,60.0001,1,1,0,0.1280746,0,0,0,0,0,,-1.75348e-06,,,
312,	09/22/2022 19:36:13.886,15000.1,7800.001,1,3,0,1.206393,0,0.0002625719,0,0.000373214,0,,-9.42421e-06,,0,
623,	09/23/2022 00:47:13.886,33660.1,26460,1,3,0,1.041348,0,0.0002625719,0,0.000373214,0,,-7.11231e-07,,0,
934,	09/23/2022 05:41:45.210,51331.4,930.0007,1,5,0.04001695,3.012268,0.120542,0.01059897,0,0.02950482,0,,0.000171611,,0.0501465,
1245,	09/23/2022 08:16:17.506,60603.7,5280,1,8,0.03998065,3.353744,0.134085,0.09359586,0,0.2980359,0,,1.50551e-05,,,
1556,	09/23/2022 10:51:47.506,69933.7,14610,1,8,0.03998351,3.4302,0.137151,0.1972005,0,0.6492412,0,,2.7344e-05,,,
1867,	09/23/2022 13:26:18.166,79204.4,5220,1,10,-0.03999996,3.239694,-0.129588,0.2421813,0.05798982,0.8058977,0.189503,,7.34976e-06,,0,0
2178,	09/23/2022 16:00:31.561,88457.8,1650,1,8,0.03998417,3.35952,0.134328,0.01832264,0.00000005888947,0.8671977,0.3974783,,1.77026e-05,,0,
2489,	09/23/2022 18:36:01.561,97787.8,10980,1,8,0.03998291,3.445557,0.137763,0.1219283,0.00000005888947,1.218158,0.3974783,,6.68986e-05,,0.14498,
2800,	09/23/2022 21:10:45.162,107071,8670,1,10,-0.03997862,3.227798,-0.129043,0.128741,0.09627471,1.242082,0.7108853,,-1.59237e-05,,0,0
3111,	09/23/2022 23:44:46.405,116313,4920,1,8,0.04000169,3.368623,0.134751,0.05465783,0.00000002221339,1.425539,0.800912,,2.03886e-05,,0,0
3422,	09/24/2022 02:19:29.724,125596,2670,1,10,-0.04001415,3.27102,-0.130887,0.1281263,0.02967255,1.675823,0.8983142,,-2.44169e-05,,,
3733,	09/24/2022 04:54:17.238,134883,630.0001,1,7,0,3.258577,0,0,0.00000002223027,1.675823,1.209654,,2.07035e-05,,0,
4044,	09/24/2022 07:29:17.279,144183,8130,1,8,0.0399968,3.40174,0.136059,0.09031813,0.00000002223027,1.979901,1.209654,,1.88475e-05,,0,
4355,	09/24/2022 10:04:06.856,153473,5850,1,10,-0.04001588,3.239684,-0.129639,0.1285278,0.0650176,2.11069,1.422068,,4.26735e-06,,,
4666,	09/24/2022 12:38:25.917,162732.114,1860,1,8,0.03999799,3.356997,0.134273,0.02066163,0.00000002000832,2.179748,1.622844,,8.85176e-06,,0,0
4977,	09/24/2022 15:13:55.917,172062,11190,1,8,0.0399977,3.441576,0.137655,0.1243054,0.00000002000832,2.530546,1.622844,,0.00010358,,0.144784,
5288,	09/24/2022 17:48:49.753,181355.95,8850,1,10,-0.03999865,3.230167,-0.129202,0.1292351,0.09831289,2.547777,1.943023,,-1.77018e-05,,0,
5599,	09/24/2022 20:23:03.057,190609,4770,1,8,0.03999907,3.36493,0.134594,0.05298993,0.00000002111014,2.725463,2.038918,,-2.21281e-05,,0,0
5910,	09/24/2022 22:58:00.589,199907,2400.001,1,11,0,3.367275,0,0.1296132,0.00000002111014,2.986022,2.038918,,-1.97166e-05,,0,
6221,	09/25/2022 01:33:00.629,209207,900.0001,1,12,-0.04001677,3.276176,-0.131102,0.1296132,0.01000301,2.986022,2.07172,,-1.42625e-05,,,
6532,	09/25/2022 04:08:30.629,218537,10230,1,12,-0.0400219,3.217566,-0.128773,0.1296132,0.1136963,2.986022,2.408329,,-2.43808e-05,,0,
6843,	09/25/2022 07:37:24.981,231071,2220.001,1,17,0.1000065,3.412486,0.341271,0.06165738,0.00000000003523958,3.190952,2.640823,,4.42193e-05,,0.792202,
7154,	09/25/2022 10:12:06.540,240353,3600,1,19,-0.1000047,3.162902,-0.316305,0.1914738,0.09999008,3.640054,2.959974,,3.55636e-07,,1.75615,
7465,	09/25/2022 12:46:00.409,249587,5460,2,17,0.09999323,3.464992,0.346476,0.1516232,0.000000000001092752,0.5140434,0.00000000000309507,,2.13345e-06,,,
7776,	09/25/2022 15:20:34.008,258860.205,360.0002,2,20,0,2.798092,0,0.1891846,0.1882239,0.6456205,0.5905175,,0.000132611,,,
8087,	09/25/2022 17:53:57.442,268064,1410,3,19,-0.1000026,3.197164,-0.319725,0.1889152,0.03916119,0.6444201,0.1258778,,-3.74604e-05,,,
8398,	09/25/2022 20:27:53.345,277300,3270,4,17,0.09999174,3.421824,0.342154,0.09080639,0,0.3045517,0,,2.37059e-07,,,
8709,	09/25/2022 23:02:48.694,286595,5040,4,19,-0.1000208,3.121356,-0.312201,0.1886738,0.1400099,0.6433945,0.4452127,,-6.42148e-05,,0,
9020,	09/26/2022 01:36:36.881,295823,6900,5,23,0.01019148,3.649993,0.0371988,0.1883836,0.000000000007145933,0.6422413,0.0000000000200962,,6.91435e-06,,0,
9331,	09/26/2022 02:34:49.525,299316,2890,5,25,-0.0100003,3.312531,-0.0331263,0.1883907,0.008026837,0.6422673,0.0267532,,1.05887e-05,,,
9642,	09/26/2022 03:26:39.526,302426,6000,5,25,-0.0100003,3.31087,-0.0331097,0.1883907,0.01666477,0.6422673,0.05536091,,-4.78129e-06,,,
9953,	09/26/2022 04:18:29.526,305536,9110,5,25,-0.01000024,3.308837,-0.0330892,0.1883907,0.02530265,0.6422673,0.08395127,,2.05474e-06,,,
10264,	09/26/2022 05:10:19.525,308646,12220,5,25,-0.01000032,3.305929,-0.0330603,0.1883907,0.03394055,0.6422673,0.1125222,,-9.40499e-06,,,
10575,	09/26/2022 06:02:09.525,311756,15330,5,25,-0.01000037,3.296074,-0.032962,0.1883907,0.04257844,0.6422673,0.1410469,,,,,
10886,	09/26/2022 06:53:59.526,314866,18440,5,25,-0.01000012,3.278956,-0.03279,0.1883907,0.05121627,0.6422673,0.1694305,,8.81188e-06,,,
11197,	09/26/2022 07:45:49.526,317976,21550.001,5,25,-0.01000017,3.275367,-0.0327542,0.1883907,0.05985411,0.6422673,0.1977349,,-8.29722e-06,,,
11508,	09/26/2022 08:37:39.526,321086,24660.001,5,25,-0.01000032,3.273617,-0.0327372,0.1883907,0.06849188,0.6422673,0.2260187,,6.91475e-06,,,
11819,	09/26/2022 09:29:29.526,324196,27770,5,25,-0.01000026,3.272487,-0.0327257,0.1883907,0.07712967,0.6422673,0.2542908,,5.216e-06,,,
12130,	09/26/2022 10:21:19.525,327306,30880,5,25,-0.01000036,3.271414,-0.0327153,0.1883907,0.08576755,0.6422673,0.2825531,,2.0864e-05,,,0
12441,	09/26/2022 11:13:09.526,330416,33990.001,5,25,-0.01000037,3.269883,-0.0327,0.1883907,0.09440546,0.6422673,0.3108052,,-1.06678e-05,,,
12752,	09/26/2022 12:04:59.526,333526,37100.001,5,25,-0.01000042,3.267827,-0.0326796,0.1883907,0.1030434,0.6422673,0.3390424,,,,,
13063,	09/26/2022 12:56:49.525,336636,40210,5,25,-0.01000029,3.261018,-0.0326111,0.1883907,0.1116813,0.6422673,0.3672463,,1.07869e-05,,,
13374,	09/26/2022 13:48:39.525,339746,43320,5,25,-0.01000036,3.249629,-0.0324975,0.1883907,0.1203192,0.6422673,0.3953649,,-1.04703e-05,,,
13685,	09/26/2022 14:40:29.526,342856,46430.001,5,25,-0.01000017,3.236993,-0.0323705,0.1883907,0.1289571,0.6422673,0.4233785,,,,,
13996,	09/26/2022 15:32:19.525,345966,49540,5,25,-0.01000037,3.225801,-0.0322592,0.1883907,0.137595,0.6422673,0.4512931,,-9.48238e-07,,,
14307,	09/26/2022 16:24:09.525,349076,52650,5,25,-0.01000045,3.208046,-0.0320819,0.1883907,0.1462329,0.6422673,0.479082,,-2.97515e-05,,,
14618,	09/26/2022 17:15:59.526,352186,55760,5,25,-0.01000031,3.186123,-0.0318622,0.1883907,0.1548709,0.6422673,0.5067101,,-2.07034e-05,,,
14929,	09/26/2022 18:07:49.526,355296,58870.001,5,25,-0.0100004,3.178884,-0.0317901,0.1883907,0.1635088,0.6422673,0.5341939,,-2.47744e-05,,,
15240,	09/26/2022 18:59:39.525,358406,61980,5,25,-0.0100005,3.158003,-0.0315816,0.1883907,0.1721469,0.6422673,0.5615997,,-1.82133e-05,,,
15551,	09/26/2022 19:51:29.526,361516,65090,5,25,-0.01000043,3.016936,-0.0301707,0.1883907,0.1807849,0.6422673,0.5883499,,-8.56764e-05,,,
15862,	09/26/2022 20:43:19.526,364626,68200,5,25,-0.01000033,2.570617,-0.025707,0.1883907,0.189423,0.6422673,0.6130356,,-0.000371778,,0.00699631,142.104
16173,	09/26/2022 21:41:38.139,368124,2740,5,27,0.009999178,3.066501,0.0306625,0.1960001,0.1898633,0.6644436,0.6141526,,5.38942e-05,,,
16484,	09/26/2022 22:33:28.139,371234,5850,5,27,0.009999193,3.217764,0.032175,0.2046371,0.1898633,0.6916648,0.6141526,,1.42245e-05,,0,
16795,	09/26/2022 23:25:18.140,374344.337,8960.001,5,27,0.009999197,3.242893,0.0324263,0.213274,0.1898633,0.7196236,0.6141526,,5.57154e-06,,,0
17106,	09/27/2022 00:17:08.140,377454.337,12070.001,5,27,0.009999286,3.254128,0.032539,0.221911,0.1898633,0.7476736,0.6141526,,1.23266e-05,,,
17417,	09/27/2022 01:08:58.139,380564,15180,5,27,0.009999249,3.275375,0.0327513,0.2305479,0.1898633,0.7758687,0.6141526,,-7.23079e-06,,0,
17728,	09/27/2022 02:00:48.140,383674.337,18290.001,5,27,0.009999245,3.294599,0.0329435,0.2391849,0.1898633,0.8042476,0.6141526,,-8.85139e-06,,,
18039,	09/27/2022 02:52:38.140,386784,21400,5,27,0.00999916,3.309512,0.0330923,0.2478219,0.1898633,0.8327654,0.6141526,,-8.88921e-06,,0,
18350,	09/27/2022 03:44:28.139,389894,24510,5,27,0.009999216,3.319826,0.0331957,0.2564588,0.1898633,0.8614024,0.6141526,,,,0,
18661,	09/27/2022 04:36:18.139,393004,27620,5,27,0.009999298,3.325605,0.0332537,0.2650958,0.1898633,0.8901044,0.6141526,,9.20588e-06,,,
18972,	09/27/2022 05:28:08.140,396114.337,30730.001,5,27,0.009999279,3.327389,0.0332715,0.2737328,0.1898633,0.9188355,0.6141526,,-2.13368e-05,,,
19283,	09/27/2022 06:19:58.140,399224,33840,5,27,0.009999201,3.328594,0.0332833,0.2823698,0.1898633,0.9475791,0.6141526,,,,,
19594,	09/27/2022 07:11:48.140,402334.337,36950.001,5,27,0.009999335,3.330221,0.0333,0.2910067,0.1898633,0.9763347,0.6141526,,3.75388e-06,,,
19905,	09/27/2022 08:03:38.139,405444,40060,5,27,0.009999245,3.331889,0.0333164,0.2996436,0.1898633,1.005104,0.6141526,,3.47687e-06,,0,
20216,	09/27/2022 08:55:28.140,408554,43170,5,27,0.009999383,3.334069,0.0333386,0.3082806,0.1898633,1.03389,0.6141526,,-4.86008e-06,,0,
20527,	09/27/2022 09:47:18.139,411664,46280,5,27,0.009999249,3.33688,0.0333663,0.3169176,0.1898633,1.062698,0.6141526,,1.64756e-05,,0,
20838,	09/27/2022 10:39:08.139,414774,49390,5,27,0.009999402,3.341907,0.0334171,0.3255543,0.1898633,1.091537,0.6141526,,3.161e-06,,,
21149,	09/27/2022 11:30:58.139,417884,52500,5,27,0.009999417,3.355887,0.0335569,0.3341914,0.1898633,1.120449,0.6141526,,1.85315e-05,,,2.03552
21460,	09/27/2022 12:22:48.139,420994,55610,5,27,0.009999439,3.368184,0.03368,0.3428282,0.1898633,1.149512,0.6141526,,,,,
21771,	09/27/2022 13:14:38.139,424104,58720,5,27,0.009999361,3.368935,0.0336872,0.3514648,0.1898633,1.178603,0.6141526,,3.95122e-07,,,
22082,	09/27/2022 14:06:28.139,427214,61830,5,27,0.009999137,3.37089,0.033706,0.3601016,0.1898633,1.207707,0.6141526,,1.67138e-05,,,
22393,	09/27/2022 14:58:18.139,430324.336,64940,5,27,0.00999926,3.374066,0.0337382,0.3687383,0.1898633,1.236832,0.6141526,,1.35133e-05,,,
22704,	09/27/2022 15:50:08.139,433434.336,68050,5,27,0.00999935,3.403694,0.0340347,0.377375,0.1898633,1.266032,0.6141526,,6.31805e-05,,0,
23015,	09/27/2022 17:56:17.767,441003.964,2850,6,31,0,2.993555,0,0,0.1823591,0,0.5501119,,3.37835e-05,,,
23041,	09/27/2022 18:08:47.767,441754,3600,6,31,0,2.998639,0,0,0.1823591,0,0.5501119,,-6.55903e-06,0.849264,0,0